Temperature (K)	Pressure (MPa)	Density (l, kg/m3)	Volume (l, m3/kg)	Internal Energy (l, kJ/mol)	Enthalpy (l, kJ/mol)	Entropy (l, J/mol*K)	Cv (l, J/mol*K)	Cp (l, J/mol*K)	Sound Spd. (l, m/s)	Joule-Thomson (l, K/MPa)	Viscosity (l, uPa*s)	Therm. Cond. (l, W/m*K)	Surf. Tension (l, N/m)	Density (v, kg/m3)	Volume (v, m3/kg)	Internal Energy (v, kJ/mol)	Enthalpy (v, kJ/mol)	Entropy (v, J/mol*K)	Cv (v, J/mol*K)	Cp (v, J/mol*K)	Sound Spd. (v, m/s)	Joule-Thomson (v, K/MPa)	Viscosity (v, uPa*s)	Therm. Cond. (v, W/m*K)
216.59	0.51795	1178.5	0.00084856	3.5029	3.5223	22.943	42.895	85.960	975.85	-0.14430	253.37	0.17716	0.016495	13.761	0.072672	17.286	18.943	94.138	27.691	39.992	222.78	26.174	10.892	0.011116
220.74	0.61795	1163.4	0.00085952	3.8576	3.8810	24.566	42.637	86.429	945.88	-0.12891	236.35	0.17198	0.015520	16.294	0.061372	17.338	19.007	93.092	28.215	41.160	223.21	24.858	11.099	0.011492
224.41	0.71795	1149.9	0.00086966	4.1727	4.2002	25.983	42.418	86.934	919.41	-0.11365	222.37	0.16743	0.014669	18.827	0.053115	17.381	19.059	92.196	28.702	42.297	223.46	23.783	11.285	0.011842
227.72	0.81795	1137.4	0.00087918	4.4577	4.4893	27.245	42.229	87.468	895.58	-0.098427	210.58	0.16337	0.013910	21.364	0.046807	17.416	19.101	91.411	29.160	43.414	223.57	22.880	11.456	0.012173
230.73	0.91795	1125.9	0.00088821	4.7188	4.7547	28.386	42.064	88.029	873.81	-0.083167	200.44	0.15968	0.013225	23.909	0.041824	17.445	19.135	90.709	29.595	44.520	223.57	22.104	11.615	0.012489
233.51	1.0179	1115.0	0.00089686	4.9608	5.0010	29.430	41.918	88.612	853.68	-0.067817	191.56	0.15630	0.012600	26.465	0.037785	17.469	19.162	90.073	30.012	45.623	223.48	21.426	11.764	0.012795
236.10	1.1179	1104.7	0.00090520	5.1868	5.2313	30.394	41.788	89.219	834.90	-0.052331	183.70	0.15318	0.012024	29.034	0.034442	17.489	19.184	89.490	30.412	46.726	223.33	20.826	11.905	0.013092
238.52	1.2180	1095.0	0.00091328	5.3993	5.4483	31.292	41.673	89.847	817.25	-0.036670	176.66	0.15026	0.011490	31.618	0.031627	17.506	19.201	88.950	30.799	47.835	223.12	20.288	12.040	0.013383
240.79	1.3179	1085.6	0.00092115	5.6004	5.6538	32.132	41.569	90.496	800.56	-0.020798	170.30	0.14753	0.010993	34.220	0.029223	17.519	19.214	88.447	31.174	48.953	222.86	19.802	12.170	0.013670
242.94	1.4180	1076.6	0.00092885	5.7915	5.8494	32.924	41.477	91.168	784.69	-0.0046813	164.51	0.14495	0.010526	36.840	0.027144	17.530	19.224	87.974	31.539	50.085	222.57	19.359	12.295	0.013953
244.99	1.5179	1067.9	0.00093641	5.9739	6.0364	33.674	41.393	91.862	769.52	0.011712	159.21	0.14251	0.010087	39.480	0.025329	17.538	19.230	87.528	31.897	51.235	222.24	18.953	12.416	0.014234
246.94	1.6179	1059.5	0.00094384	6.1486	6.2158	34.386	41.319	92.579	754.96	0.028414	154.32	0.14019	0.0096726	42.143	0.023729	17.544	19.234	87.104	32.249	52.407	221.88	18.577	12.534	0.014513
248.80	1.7179	1051.3	0.00095117	6.3164	6.3883	35.066	41.252	93.320	740.94	0.045452	149.78	0.13798	0.0092796	44.828	0.022307	17.548	19.235	86.700	32.596	53.603	221.49	18.227	12.650	0.014793
250.58	1.8180	1043.4	0.00095843	6.4782	6.5549	35.716	41.194	94.086	727.37	0.062856	145.57	0.13586	0.0089063	47.539	0.021036	17.551	19.234	86.313	32.940	54.827	221.08	17.900	12.763	0.015073
252.29	1.9180	1035.6	0.00096562	6.6344	6.7160	36.340	41.144	94.876	714.19	0.080653	141.63	0.13383	0.0085506	50.275	0.019891	17.551	19.230	85.942	33.281	56.082	220.64	17.592	12.875	0.015354
253.94	2.0180	1028.0	0.00097276	6.7857	6.8721	36.940	41.102	95.693	701.36	0.098871	137.93	0.13188	0.0082111	53.038	0.018854	17.550	19.225	85.583	33.620	57.370	220.18	17.302	12.985	0.015638
255.53	2.1180	1020.6	0.00097986	6.9325	7.0238	37.518	41.069	96.538	688.83	0.11753	134.45	0.13000	0.0078864	55.831	0.017911	17.548	19.217	85.237	33.957	58.693	219.71	17.027	13.094	0.015923
257.06	2.2180	1013.2	0.00098694	7.0751	7.1715	38.078	41.046	97.411	676.56	0.13667	131.16	0.12818	0.0075753	58.653	0.017049	17.544	19.208	84.901	34.291	60.054	219.22	16.765	13.201	0.016212
258.55	2.3180	1006.0	0.00099400	7.2140	7.3154	38.619	41.032	98.314	664.52	0.15630	128.05	0.12643	0.0072767	61.506	0.016258	17.539	19.197	84.575	34.623	61.455	218.71	16.516	13.308	0.016505
259.99	2.4179	998.95	0.0010011	7.3494	7.4559	39.144	41.029	99.250	652.68	0.17646	125.09	0.12473	0.0069897	64.393	0.015530	17.532	19.185	84.257	34.953	62.900	218.19	16.279	13.415	0.016802
261.38	2.5179	991.95	0.0010081	7.4816	7.5933	39.654	41.036	100.22	641.03	0.19716	122.28	0.12308	0.0067135	67.313	0.014856	17.525	19.171	83.947	35.280	64.390	217.66	16.051	13.521	0.017104
262.74	2.6180	985.04	0.0010152	7.6109	7.7278	40.151	41.054	101.22	629.55	0.21845	119.60	0.12147	0.0064474	70.269	0.014231	17.516	19.155	83.644	35.605	65.929	217.11	15.833	13.626	0.017411
264.06	2.7179	978.20	0.0010223	7.7374	7.8597	40.634	41.082	102.27	618.23	0.24034	117.04	0.11991	0.0061908	73.262	0.013650	17.506	19.138	83.347	35.929	67.522	216.56	15.624	13.732	0.017725
265.34	2.8180	971.43	0.0010294	7.8614	7.9891	41.106	41.120	103.35	607.07	0.26287	114.58	0.11840	0.0059431	76.294	0.013107	17.494	19.120	83.055	36.251	69.173	216.00	15.422	13.838	0.018045
266.59	2.9179	964.72	0.0010366	7.9831	8.1163	41.567	41.168	104.48	596.06	0.28608	112.23	0.11692	0.0057037	79.367	0.012600	17.482	19.100	82.768	36.571	70.886	215.43	15.227	13.945	0.018372
267.81	3.0180	958.06	0.0010438	8.1027	8.2413	42.018	41.225	105.66	585.20	0.31001	109.96	0.11547	0.0054722	82.481	0.012124	17.469	19.079	82.486	36.891	72.667	214.85	15.038	14.051	0.018707
269.01	3.1179	951.45	0.0010510	8.2202	8.3644	42.459	41.290	106.89	574.49	0.33468	107.78	0.11407	0.0052482	85.640	0.011677	17.455	19.057	82.207	37.210	74.521	214.26	14.856	14.159	0.019051
270.17	3.2180	944.87	0.0010583	8.3358	8.4857	42.892	41.362	108.17	563.93	0.36016	105.68	0.11269	0.0050312	88.844	0.011256	17.439	19.033	81.932	37.529	76.455	213.66	14.678	14.267	0.019405
271.30	3.3179	938.32	0.0010657	8.4497	8.6053	43.316	41.441	109.51	553.52	0.38647	103.65	0.11134	0.0048209	92.097	0.010858	17.423	19.008	81.660	37.849	78.476	213.06	14.506	14.376	0.019768
272.42	3.4179	931.80	0.0010732	8.5620	8.7234	43.734	41.526	110.91	543.26	0.41368	101.69	0.11002	0.0046171	95.399	0.010482	17.405	18.982	81.391	38.169	80.590	212.45	14.338	14.486	0.020143
273.50	3.5180	925.30	0.0010807	8.6728	8.8401	44.144	41.616	112.38	533.14	0.44184	99.783	0.10873	0.0044193	98.754	0.010126	17.387	18.954	81.124	38.491	82.807	211.84	14.173	14.598	0.020529
274.57	3.6180	918.81	0.0010884	8.7822	8.9555	44.547	41.710	113.92	523.18	0.47099	97.938	0.10746	0.0042274	102.16	0.0097883	17.367	18.925	80.859	38.815	85.134	211.22	14.012	14.711	0.020927
275.61	3.7180	912.33	0.0010961	8.8903	9.0696	44.945	41.808	115.54	513.36	0.50121	96.145	0.10622	0.0040410	105.63	0.0094670	17.346	18.895	80.595	39.142	87.584	210.59	13.855	14.825	0.021340
276.64	3.8179	905.85	0.0011039	8.9972	9.1827	45.337	41.908	117.24	503.68	0.53256	94.402	0.10500	0.0038600	109.16	0.0091611	17.324	18.864	80.332	39.471	90.165	209.95	13.700	14.941	0.021767
277.64	3.9179	899.37	0.0011119	9.1031	9.2948	45.724	42.011	119.04	494.14	0.56510	92.705	0.10380	0.0036841	112.75	0.0088695	17.302	18.831	80.071	39.803	92.892	209.31	13.547	15.060	0.022210
278.63	4.0180	892.88	0.0011200	9.2079	9.4059	46.106	42.116	120.94	484.74	0.59892	91.049	0.10262	0.0035132	116.40	0.0085909	17.278	18.797	79.810	40.140	95.778	208.66	13.397	15.180	0.022670
279.59	4.1179	886.37	0.0011282	9.3118	9.5163	46.483	42.223	122.95	475.47	0.63410	89.434	0.10146	0.0033470	120.13	0.0083245	17.253	18.761	79.549	40.481	98.838	208.00	13.248	15.302	0.023149
280.54	4.2180	879.85	0.0011366	9.4149	9.6259	46.857	42.332	125.08	466.33	0.67072	87.854	0.10032	0.0031855	123.93	0.0080694	17.226	18.724	79.288	40.827	102.09	207.34	13.101	15.427	0.023647
281.47	4.3180	873.29	0.0011451	9.5173	9.7349	47.227	42.442	127.35	457.30	0.70888	86.309	0.099202	0.0030283	127.80	0.0078247	17.199	18.686	79.027	41.178	105.55	206.67	12.955	15.555	0.024167
282.39	4.4180	866.70	0.0011538	9.6190	9.8433	47.593	42.555	129.76	448.39	0.74868	84.794	0.098099	0.0028755	131.76	0.0075897	17.170	18.646	78.765	41.535	109.25	205.99	12.810	15.686	0.024710
283.29	4.5179	860.07	0.0011627	9.7201	9.9513	47.957	42.669	132.34	439.59	0.79024	83.308	0.097013	0.0027268	135.80	0.0073638	17.140	18.604	78.502	41.900	113.21	205.30	12.666	15.820	0.025279
284.18	4.6179	853.40	0.0011718	9.8208	10.059	48.318	42.787	135.10	430.88	0.83367	81.849	0.095945	0.0025822	139.93	0.0071462	17.109	18.561	78.238	42.271	117.46	204.60	12.523	15.957	0.025874
285.05	4.7179	846.66	0.0011811	9.9210	10.166	48.677	42.907	138.07	422.27	0.87912	80.414	0.094893	0.0024415	144.16	0.0069365	17.076	18.517	77.972	42.651	122.03	203.90	12.379	16.099	0.026500
285.91	4.8180	839.87	0.0011907	10.021	10.273	49.034	43.031	141.26	413.74	0.92674	79.000	0.093857	0.0023047	148.50	0.0067341	17.042	18.470	77.704	43.040	126.97	203.18	12.236	16.244	0.027157
286.75	4.9179	833.01	0.0012005	10.121	10.381	49.390	43.159	144.71	405.28	0.97668	77.607	0.092838	0.0021716	152.94	0.0065385	17.007	18.422	77.433	43.439	132.32	202.46	12.092	16.394	0.027850
287.58	5.0179	826.06	0.0012106	10.220	10.488	49.745	43.292	148.45	396.88	1.0291	76.231	0.091835	0.0020421	157.50	0.0063492	16.970	18.372	77.160	43.849	138.13	201.72	11.948	16.549	0.028582
288.40	5.1180	819.03	0.0012210	10.320	10.595	50.099	43.432	152.50	388.54	1.0843	74.870	0.090849	0.0019162	162.19	0.0061657	16.931	18.320	76.884	44.270	144.48	200.98	11.802	16.710	0.029356
289.21	5.2179	811.90	0.0012317	10.420	10.702	50.452	43.578	156.93	380.22	1.1425	73.524	0.089881	0.0017938	167.01	0.0059877	16.891	18.266	76.603	44.706	151.43	200.22	11.656	16.876	0.030178
290.00	5.3180	804.65	0.0012428	10.519	10.810	50.806	43.734	161.77	371.93	1.2038	72.188	0.088932	0.0016749	171.97	0.0058148	16.848	18.209	76.319	45.156	159.08	199.44	11.508	17.048	0.031051
290.78	5.4179	797.28	0.0012543	10.620	10.919	51.160	43.900	167.10	363.64	1.2687	70.862	0.088002	0.0015593	177.10	0.0056466	16.804	18.150	76.029	45.622	167.53	198.66	11.358	17.228	0.031982
291.56	5.5180	789.77	0.0012662	10.720	11.028	51.516	44.079	172.97	355.33	1.3375	69.543	0.087095	0.0014470	182.39	0.0054827	16.757	18.089	75.734	46.107	176.93	197.85	11.207	17.416	0.032977
292.32	5.6179	782.11	0.0012786	10.821	11.138	51.873	44.274	179.49	346.99	1.4105	68.230	0.086212	0.0013381	187.87	0.0053228	16.709	18.025	75.433	46.613	187.45	197.03	11.052	17.612	0.034045
293.07	5.7180	774.27	0.0012915	10.923	11.248	52.232	44.487	186.78	338.59	1.4884	66.919	0.085358	0.0012324	193.56	0.0051664	16.658	17.958	75.125	47.142	199.27	196.19	10.894	17.818	0.035194
293.81	5.8179	766.24	0.0013051	11.026	11.360	52.594	44.723	194.98	330.10	1.5716	65.607	0.084536	0.0011299	199.47	0.0050134	16.604	17.887	74.809	47.697	212.68	195.32	10.733	18.035	0.036436
294.54	5.9179	757.99	0.0013193	11.130	11.474	52.959	44.987	204.29	321.50	1.6609	64.293	0.083753	0.0010307	205.62	0.0048632	16.547	17.814	74.484	48.283	228.00	194.43	10.568	18.264	0.037784
295.26	6.0180	749.49	0.0013342	11.235	11.589	53.329	45.286	214.98	312.77	1.7571	62.973	0.083018	0.00093464	212.06	0.0047157	16.487	17.736	74.149	48.903	245.67	193.50	10.398	18.506	0.039256
295.97	6.1179	740.71	0.0013501	11.342	11.706	53.705	45.627	227.38	303.87	1.8611	61.643	0.082342	0.00084182	218.81	0.0045703	16.423	17.654	73.802	49.564	266.25	192.53	10.222	18.765	0.040871
296.67	6.2179	731.60	0.0013669	11.451	11.825	54.087	46.019	241.99	294.77	1.9741	60.299	0.081740	0.00075224	225.91	0.0044266	16.355	17.567	73.442	50.272	290.53	191.52	10.041	19.041	0.042657
297.36	6.3180	722.11	0.0013848	11.562	11.947	54.478	46.476	259.45	285.44	2.0976	58.934	0.081233	0.00066592	233.41	0.0042843	16.283	17.474	73.066	51.037	319.57	190.45	9.8520	19.339	0.044647
298.04	6.4179	712.17	0.0014042	11.676	12.072	54.879	47.012	280.72	275.85	2.2331	57.543	0.080847	0.00058292	241.38	0.0041428	16.205	17.376	72.672	51.870	354.92	189.31	9.6550	19.661	0.046888
298.71	6.5179	701.69	0.0014251	11.793	12.202	55.293	47.648	307.16	265.97	2.3828	56.118	0.080620	0.00050330	249.91	0.0040015	16.122	17.269	72.257	52.786	398.85	188.08	9.4482	20.013	0.049442
299.38	6.6179	690.57	0.0014481	11.915	12.337	55.723	48.410	340.88	255.76	2.5491	54.647	0.080601	0.00042716	259.09	0.0038596	16.030	17.154	71.814	53.809	454.89	186.74	9.2299	20.401	0.052400
300.03	6.7180	678.64	0.0014735	12.043	12.478	56.173	49.338	385.28	245.14	2.7354	53.116	0.080862	0.00035465	269.09	0.0037162	15.930	17.029	71.340	54.968	528.78	185.25	8.9976	20.834	0.055899
300.68	6.8179	665.69	0.0015022	12.178	12.628	56.651	50.492	446.26	234.02	2.9466	51.508	0.081508	0.00028594	280.12	0.0035699	15.819	16.890	70.824	56.315	630.64	183.56	8.7475	21.324	0.060154
301.32	6.9180	651.39	0.0015352	12.322	12.790	57.164	51.975	535.29	222.20	3.1899	49.794	0.082720	0.00022130	292.50	0.0034188	15.693	16.734	70.254	57.933	779.90	181.58	8.4741	21.893	0.065539
301.94	7.0180	635.24	0.0015742	12.481	12.967	57.729	53.985	677.88	209.30	3.4778	47.928	0.084849	0.00016111	306.77	0.0032598	15.546	16.553	69.607	59.977	1019.2	179.15	8.1682	22.572	0.072771
302.56	7.1179	616.22	0.0016228	12.661	13.169	58.374	56.972	943.69	194.56	3.8330	45.826	0.088727	0.00010597	323.93	0.0030871	15.369	16.336	68.843	62.782	1461.8	175.93	7.8128	23.425	0.083470
303.18	7.2180	592.12	0.0016888	12.879	13.415	59.164	62.197	1602.0	176.34	4.3024	43.298	0.097027	5.6917e-05	346.22	0.0028884	15.138	16.055	67.871	67.274	2531.6	170.98	7.3722	24.593	0.10242
303.78	7.3180	555.39	0.0018005	13.194	13.774	60.319	75.307	5110.8	150.09	5.0016	39.716	0.12689	1.6290e-05	381.36	0.0026222	14.773	15.617	66.389	77.885	7854.9	159.95	6.7437	26.585	0.15643